; WAVELENGTH 70.06000 70.06000
319.84071 1.75940 20.58196 
320.28908 2.29728 352.03692 
320.73742 2.63256 2.95394 
321.18572 3.23721 3.54643 
321.63400 3.79709 13.46458 
322.08224 4.09743 21.10074 
322.53045 4.97770 29.59482 
322.97863 5.44275 25.39027 
323.42678 6.21503 34.78132 
323.87490 6.46598 30.27140 
324.32299 7.14595 35.25214 
324.77104 7.61445 37.07443 
325.21907 8.64021 42.92727 
325.66706 9.40249 45.83523 
326.11503 9.91599 50.57159 
326.56296 10.19127 49.12285 
327.01086 10.77922 54.43838 
327.45873 11.70532 56.37543 
327.90657 11.70134 57.13156 
328.35438 12.79678 61.74563 
328.80216 12.90930 63.01030 
329.24991 13.74314 66.26045 
329.69763 13.78192 66.02913 
330.14532 14.56187 69.49881 
330.59297 14.57942 70.03361 
331.04060 15.52976 73.75169 
331.48819 16.04457 75.51300 
331.93576 16.33558 78.41206 
332.38330 17.13641 79.80212 
332.83080 17.66688 81.35178 
333.27827 17.77113 82.81559 
333.72572 17.79234 84.00353 
334.17313 18.49198 86.18806 
334.62052 18.63162 88.27293 
335.06787 19.40114 90.33967 
335.51519 19.41507 91.25706 
335.96249 19.92508 92.90965 
336.40975 20.58214 94.72608 
336.85699 20.48869 95.89487 
337.30419 21.06960 97.93373 
337.75136 21.65783 99.03719 
338.19851 21.68385 100.39182 
338.64562 21.98315 102.23646 
339.09271 22.35554 103.63832 
339.53976 22.52528 104.55266 
339.98679 22.57756 106.25204 
340.43378 23.03386 107.43256 
340.88075 23.22690 108.87698 
341.32768 23.72168 110.57270 
341.77459 23.90204 111.91734 
342.22147 24.06799 113.20960 
342.66831 24.39739 114.21714 
343.11513 24.72051 115.39857 
343.56192 25.08562 116.92424 
344.00868 24.98112 118.48608 
344.45541 25.47085 119.21943 
344.90211 25.74348 120.36810 
345.34878 26.14223 121.28628 
345.79542 26.04775 122.99357 
346.24204 26.31312 124.06703 
346.68862 26.31055 125.79252 
347.13517 26.61278 126.68291 
347.58170 26.90744 127.78623 
348.02820 27.19563 128.65859 
348.47466 27.30722 130.19820 
348.92110 27.63475 131.44355 
349.36751 27.95710 132.13914 
349.81389 28.06543 133.50890 
350.26024 27.97257 134.53824 
350.70656 28.25260 135.88931 
351.15286 28.63894 136.36290 
351.59912 28.79208 137.60246 
352.04536 28.88038 138.72397 
352.49157 28.86553 140.06243 
352.93775 29.21586 140.87781 
353.38390 29.55928 141.81893 
353.83002 29.72138 143.04121 
354.27611 29.77403 144.38570 
354.72218 30.00542 145.21123 
355.16821 30.21461 145.85845 
355.61422 30.27035 147.09675 
356.06020 30.64362 147.95240 
356.50615 30.82926 149.53945 
356.95207 30.83352 150.18272 
357.39796 31.01512 151.47190 
357.84383 31.13985 152.08572 
358.28967 31.18048 153.37127 
358.73548 31.54534 153.83461 
359.18126 31.40153 155.36017 
359.62701 31.70019 156.67698 
360.07273 31.82711 157.22552 
360.51843 32.05934 158.28411 
360.96410 32.08805 159.30170 
361.40974 32.27516 160.42680 
361.85535 32.40766 161.24784 
362.30093 32.57380 162.27929 
362.74649 32.53439 163.87146 
363.19202 32.77690 164.14397 
363.63752 32.94826 165.59689 
364.08299 32.86846 166.56308 
364.52843 33.05705 167.53769 
364.97385 33.17795 168.51348 
365.41924 33.23759 169.32062 
365.86460 33.28002 170.71985 
366.30994 33.46334 170.97042 
366.75524 33.33685 171.91305 
367.20052 33.50509 172.90783 
367.64577 33.57163 174.33963 
368.09099 33.52294 175.31588 
368.53619 33.65931 176.09857 
368.98136 33.86737 177.17191 
369.42650 33.85527 178.32954 
369.87161 33.79078 178.94950 
370.31670 33.73196 180.31234 
370.76175 33.90901 180.95361 
371.20678 33.85183 182.29361 
371.65179 33.89728 183.31535 
372.09676 33.88752 183.67912 
372.54171 33.87775 184.70997 
372.98663 33.96642 185.89339 
373.43153 33.90132 186.87971 
373.87640 33.87433 187.11185 
374.32124 33.88658 188.47972 
374.76605 34.00129 189.14291 
375.21083 33.91573 189.84454 
375.65559 33.92610 190.74843 
376.10032 33.96837 192.00468 
376.54503 33.90731 192.63550 
376.98971 33.84041 193.27052 
377.43436 33.81186 194.05662 
377.87898 33.85749 194.92949 
378.32358 33.80179 195.56316 
378.76815 33.83026 196.32152 
379.21269 33.86213 197.28394 
379.65721 33.78057 198.27118 
380.10170 33.77501 198.70967 
380.54616 33.58395 199.79768 
380.99060 33.66704 199.97885 
381.43501 33.69469 201.04616 
381.87939 33.69061 201.80107 
382.32375 33.72332 202.31019 
382.76808 33.65635 203.39386 
383.21238 33.64248 203.81492 
383.65665 33.62186 204.42634 
384.10090 33.57659 205.21382 
384.54513 33.51678 205.72888 
384.98932 33.48868 206.04712 
385.43350 33.41627 207.79837 
385.87764 33.41999 207.96640 
386.32176 33.50834 208.64177 
386.76585 33.42178 209.18216 
387.20991 33.37208 210.11463 
387.65395 33.34840 210.46487 
388.09796 33.35180 211.08182 
388.54195 33.32716 211.68757 
388.98591 33.34382 212.30659 
389.42984 33.31254 213.01699 
389.87375 33.22835 213.84354 
390.31763 33.27396 214.34258 
390.76149 33.15339 214.94782 
391.20532 33.25643 215.73929 
391.64912 33.25730 216.26060 
392.09290 33.21119 216.95418 
392.53665 33.15718 217.37523 
392.98037 33.17633 217.87308 
393.42407 33.13300 218.52454 
393.86775 33.08393 219.11627 
394.31139 33.14005 219.79468 
394.75501 33.11070 220.60787 
395.19861 33.06975 221.15093 
395.64218 33.04917 221.79095 
396.08572 33.08433 222.08675 
396.52924 32.95022 222.99952 
396.97273 33.02464 223.43222 
397.41620 32.97222 223.86491 
397.85964 33.01719 224.54440 
398.30306 32.88394 225.22759 
398.74645 32.93052 225.89235 
399.18981 32.92338 226.43292 
399.63315 32.86935 226.80546 
400.07646 32.75947 227.42732 
400.51975 32.84076 227.88275 
400.96301 32.84675 228.48590 
401.40625 32.88867 229.08214 
401.84946 32.83736 229.67739 
402.29264 32.84345 230.27092 
402.73580 32.82780 230.69760 
403.17894 32.80989 231.21908 
403.62205 32.76014 231.49676 
404.06513 32.75986 232.22681 
404.50819 32.79119 232.89712 
404.95122 32.71519 233.28404 
405.39423 32.71002 233.86080 
405.83721 32.73804 234.06470 
406.28017 32.74908 235.06053 
406.72310 32.70555 235.36747 
407.16601 32.68449 235.95138 
407.60889 32.63329 236.52353 
408.05174 32.61263 236.96894 
408.49458 32.65842 237.45146 
408.93738 32.61745 238.07924 
409.38016 32.59784 238.40048 
409.82292 32.58112 239.01383 
410.26565 32.55663 239.55525 
410.70836 32.51193 240.07458 
411.15104 32.60209 240.53608 
411.59369 32.55662 241.08878 
412.03632 32.46766 241.38548 
412.47893 32.52764 241.94119 
412.92151 32.47886 242.45795 
413.36407 32.48202 242.98578 
413.80660 32.53362 243.53716 
414.24911 32.42187 243.94610 
414.69159 32.39042 244.34350 
415.13404 32.50006 244.81884 
415.57648 32.38369 245.45036 
416.01888 32.37949 245.72834 
416.46127 32.35896 246.27183 
416.90362 32.38193 246.76094 
417.34596 32.35556 247.47907 
417.78827 32.34551 247.72674 
418.23055 32.34268 248.19507 
418.67281 32.31501 248.49865 
419.11505 32.26433 249.08695 
419.55726 32.18625 249.46342 
419.99944 32.22299 250.03725 
420.44160 32.21402 250.45036 
420.88374 32.18827 250.77914 
421.32585 32.18108 251.38646 
421.76794 32.19369 252.01599 
422.21000 32.20063 252.17191 
422.65204 32.14759 252.58673 
423.09405 32.16948 253.22211 
423.53604 32.13698 253.50084 
423.97801 32.10458 253.93605 
424.41995 32.19632 254.49736 
424.86187 32.07558 254.85419 
425.30376 32.14667 255.55849 
425.74563 32.06700 255.57915 
426.18747 32.11611 256.06969 
426.62929 32.08833 256.58455 
427.07109 32.11767 256.90887 
427.51286 32.06639 257.38797 
427.95460 32.06500 257.73403 
428.39633 32.08110 258.10102 
428.83803 32.02961 258.71313 
429.27970 32.00723 258.98134 
429.72135 31.99554 259.53006 
430.16298 32.01394 259.88746 
430.60458 31.93428 260.28930 
431.04616 31.96592 260.80207 
431.48771 31.92721 261.23091 
431.92924 32.00245 261.54439 
432.37075 32.01034 262.01203 
432.81223 31.92624 262.29352 
433.25369 31.94891 262.87100 
433.69512 31.98535 263.25821 
434.13653 31.92137 263.44144 
434.57792 31.90464 263.99042 
435.01928 31.88000 264.23314 
435.46062 31.84128 264.82243 
435.90193 31.87477 265.09334 
436.34322 31.91762 265.45897 
436.78449 31.85659 265.90882 
437.22573 31.83144 266.32575 
437.66695 31.88294 266.56680 
438.10814 31.85271 266.93650 
438.54932 31.86614 267.41474 
438.99046 31.82323 267.88371 
439.43159 31.85669 267.99081 
439.87269 31.82342 268.51029 
440.31376 31.81493 268.99241 
440.75482 31.81559 269.11730 
441.19585 31.76883 269.65416 
441.63685 31.73584 270.07383 
442.07783 31.79274 270.30433 
442.51879 31.75963 270.67241 
442.95973 31.71530 271.11574 
443.40064 31.80723 271.42918 
443.84152 31.74795 271.66010 
444.28239 31.66587 271.99692 
444.72323 31.69093 272.42627 
445.16404 31.75916 272.83705 
445.60484 31.74529 273.15831 
446.04561 31.75407 273.60565 
446.48635 31.76231 273.81054 
446.92708 31.77158 274.23511 
447.36777 31.69000 274.56416 
447.80845 31.72739 274.83615 
448.24910 31.76466 275.16647 
448.68973 31.62611 275.61950 
449.13034 31.67948 275.88191 
449.57092 31.73360 276.34164 
450.01148 31.68897 276.55969 
450.45201 31.66048 276.86373 
450.89253 31.69443 277.22770 
451.33301 31.73482 277.52087 
451.77348 31.64665 277.90850 
452.21392 31.71043 278.12702 
452.65434 31.71339 278.52548 
453.09474 31.73465 278.93247 
453.53511 31.71281 278.91953 
453.97546 31.66563 279.37740 
454.41578 31.74325 279.64855 
454.85609 31.69329 280.10332 
455.29637 31.75657 280.40428 
455.73662 31.76310 280.69147 
456.17686 31.71159 280.93010 
456.61707 31.74069 281.18899 
457.05725 31.71062 281.66329 
457.49742 31.75855 281.87538 
457.93756 31.75959 282.15052 
458.37767 31.81857 282.47011 
458.81777 31.72830 282.81124 
459.25784 31.82867 283.08712 
459.69789 31.74854 283.40096 
460.13791 31.82840 283.70204 
460.57792 31.78523 283.89122 
461.01789 31.79783 284.19717 
461.45785 31.78189 284.49523 
461.89778 31.80467 284.62051 
462.33769 31.84162 285.17904 
462.77758 31.84448 285.32853 
463.21744 31.90348 285.51179 
463.65729 31.83606 285.92264 
464.09710 31.88628 286.18919 
464.53690 31.86489 286.41753 
464.97667 31.96199 286.61564 
465.41642 31.97316 287.03679 
465.85615 31.89689 287.33242 
466.29585 31.97517 287.46265 
466.73553 31.96265 287.71143 
467.17519 31.99798 287.99944 
467.61482 32.00952 288.31277 
468.05444 32.02706 288.68233 
468.49403 32.12389 288.80535 
468.93359 32.07437 289.21070 
469.37314 32.11694 289.43048 
469.81266 32.14544 289.49893 
470.25215 32.23683 289.94736 
470.69163 32.16612 290.10694 
471.13108 32.28689 290.33448 
471.57051 32.22577 290.63669 
472.00992 32.28191 290.79488 
472.44930 32.35430 291.10257 
472.88867 32.32266 291.55130 
473.32800 32.36188 291.62202 
473.76732 32.39427 291.90135 
474.20661 32.45391 292.07200 
474.64588 32.57158 292.26653 
475.08513 32.49648 292.57573 
475.52436 32.57519 292.84302 
475.96356 32.61443 293.04760 
476.40274 32.64963 293.45450 
476.84190 32.71970 293.50020 
477.28103 32.67389 293.74219 
477.72014 32.75195 293.93849 
478.15923 32.88662 294.33736 
478.59830 32.95379 294.54266 
479.03735 32.93493 294.67611 
479.47637 32.99438 294.87774 
479.91537 33.16474 295.29028 
480.35434 33.18850 295.56787 
480.79330 33.21785 295.60979 
481.23223 33.21256 295.92033 
481.67114 33.29343 295.95590 
482.11002 33.39873 296.43865 
482.54889 33.50407 296.54809 
482.98773 33.50231 296.77161 
483.42655 33.54921 296.99047 
483.86534 33.65785 297.15237 
484.30412 33.76908 297.43738 
484.74287 33.77300 297.68477 
485.18160 33.83721 297.86161 
485.62030 33.96215 298.04486 
486.05899 34.02148 298.24368 
486.49765 34.17357 298.60996 
486.93629 34.29372 298.77166 
487.37490 34.31519 298.97305 
487.81350 34.38128 299.26502 
488.25207 34.49759 299.59422 
488.69062 34.58283 299.60292 
489.12914 34.73071 299.94667 
489.56765 34.75864 300.18220 
490.00613 34.93770 300.41962 
490.44459 35.03708 300.67495 
490.88303 35.18298 300.88823 
491.32144 35.33455 301.21758 
491.75983 35.33708 301.37837 
492.19820 35.46378 301.57969 
492.63655 35.57874 301.82349 
493.07488 35.70934 302.04756 
493.51318 35.85066 302.25451 
493.95146 36.00557 302.50586 
494.38972 36.19687 302.84690 
494.82795 36.23642 303.04244 
495.26617 36.44232 303.38305 
495.70436 36.61671 303.60402 
496.14253 36.75062 303.92837 
496.58067 36.88138 304.20899 
497.01880 36.99958 304.40635 
497.45690 37.17822 304.72147 
497.89498 37.35296 305.09508 
498.33304 37.50781 305.28829 
498.77107 37.76563 305.54431 
499.20908 37.82871 305.88849 
499.64707 38.00468 306.18457 
500.08504 38.26125 306.34931 
500.52299 38.48422 306.81281 
500.96091 38.52486 307.17107 
501.39881 38.83946 307.34310 
501.83669 39.06792 307.79771 
502.27455 39.25411 308.28287 
502.71238 39.42667 308.44421 
503.15019 39.66377 308.96682 
503.58798 39.80206 309.31561 
504.02575 40.09872 309.65330 
504.46350 40.29330 309.99647 
504.90122 40.56552 310.39000 
505.33892 40.83907 310.78525 
505.77660 40.97113 311.29694 
506.21426 41.29594 311.67596 
506.65189 41.50231 312.06543 
507.08950 41.67796 312.57340 
507.52709 41.92816 313.17110 
507.96466 42.26612 313.58781 
508.40220 42.52319 314.18209 
508.83973 42.84066 314.72530 
509.27723 43.21387 315.37852 
509.71471 43.40708 315.70119 
510.15216 43.70831 316.25330 
510.58960 43.87373 316.82239 
511.02701 44.21407 317.40918 
511.46440 44.47298 318.12040 
511.90177 44.72617 318.90131 
512.33911 45.10967 319.32540 
512.77644 45.39997 320.00556 
513.21374 45.67251 320.95573 
513.65102 45.97085 321.60390 
514.08827 46.14979 322.37687 
514.52551 46.47617 323.06825 
514.96272 46.76960 324.16400 
515.39991 47.11611 324.96835 
515.83708 47.43788 325.56591 
516.27422 47.58053 326.58962 
516.71135 47.88341 327.49411 
517.14845 48.18522 328.44907 
517.58553 48.30229 329.43650 
518.02258 48.73259 330.20560 
518.45962 48.98022 331.40009 
518.89663 49.27425 332.46713 
519.33362 49.41268 333.50280 
519.77059 49.77042 334.65065 
520.20754 49.90910 335.78276 
520.64446 50.15826 336.90645 
521.08136 50.42068 338.06654 
521.51824 50.49168 339.20217 
521.95510 50.71225 340.42560 
522.39193 50.90434 341.67480 
522.82875 51.09230 342.94329 
523.26554 51.14565 344.14606 
523.70231 51.32397 345.81885 
524.13905 51.35280 347.04217 
524.57578 51.41210 348.08096 
525.01248 51.43259 349.72327 
525.44916 51.65440 351.11162 
525.88582 51.60632 352.37626 
526.32245 51.72462 353.76889 
526.75907 51.71842 355.31216 
527.19566 51.60670 356.64488 
527.63223 51.67798 357.99992 
528.06877 51.51643 359.18488 
528.50530 51.57431 0.78989 
528.94180 51.37977 2.21554 
529.37828 51.26308 3.61053 
529.81474 51.04527 4.96929 
530.25118 51.04583 6.29691 
530.68759 50.87334 7.84599 
531.12398 50.77103 9.14016 
531.56035 50.44886 10.36062 
531.99670 50.31624 11.86859 
532.43302 50.11677 13.16314 
532.86933 49.72764 14.33186 
533.30561 49.52201 15.35631 
533.74187 49.27488 16.79630 
534.17810 49.05530 17.92914 
534.61432 48.66866 19.10413 
535.05051 48.34729 20.47882 
535.48668 47.90886 21.40720 
535.92282 47.80550 22.48198 
536.35895 47.49328 23.75935 
536.79505 47.15491 24.77365 
537.23113 46.73129 25.70859 
537.66719 46.41787 26.69347 
538.10323 46.03966 27.85779 
538.53924 45.83107 28.75567 
538.97523 45.33687 29.68968 
539.41120 45.10681 30.64590 
539.84715 44.57542 31.53444 
540.28307 44.26774 32.32617 
540.71898 44.02167 33.05051 
541.15486 43.51775 34.09264 
541.59072 43.09315 34.77737 
542.02655 42.75790 35.62610 
542.46237 42.36392 36.44243 
542.89816 42.06351 37.12683 
543.33393 41.72339 37.88577 
543.76967 41.37041 38.66777 
544.20540 40.85851 39.19032 
544.64110 40.69637 39.84215 
545.07678 40.29328 40.50700 
545.51244 39.85043 41.09572 
545.94807 39.49644 41.83645 
546.38369 39.14089 42.38946 
546.81928 38.80368 42.87826 
547.25484 38.49747 43.63744 
547.69039 38.20424 44.35086 
548.12591 37.75474 44.88956 
548.56142 37.35216 45.28784 
548.99689 37.07538 45.88733 
549.43235 36.80662 46.26719 
549.86779 36.46972 46.82577 
550.30320 36.11662 47.33567 
550.73859 35.81553 47.89594 
551.17395 35.49030 48.22733 
551.60930 35.24822 48.80113 
552.04462 34.84013 49.11560 
552.47992 34.57732 49.67609 
552.91520 34.40097 50.14886 
553.35045 33.97800 50.73823 
553.78569 33.70371 51.14020 
554.22090 33.49966 51.44872 
554.65608 33.16354 52.10551 
555.09125 32.83964 52.42536 
555.52639 32.59789 52.87073 
555.96151 32.30538 53.32474 
556.39661 32.02046 53.55260 
556.83169 31.80591 54.03014 
557.26674 31.63859 54.24086 
557.70177 31.15459 54.78387 
558.13678 30.93815 55.09141 
558.57177 30.79887 55.64511 
559.00673 30.51582 55.78258 
559.44167 30.23390 56.26249 
559.87659 30.02362 56.66906 
560.31148 29.82906 57.02751 
560.74636 29.56985 57.31848 
561.18121 29.35752 57.72587 
561.61604 29.13112 58.11361 
562.05084 28.92454 58.25196 
562.48562 28.71691 58.77465 
562.92039 28.46078 59.09143 
563.35512 28.23183 59.50374 
563.78984 28.06107 59.65864 
564.22453 27.85905 60.18188 
564.65920 27.71427 60.43381 
565.09385 27.35934 60.86820 
565.52847 27.20803 61.24292 
565.96308 26.98962 61.34391 
566.39766 26.81650 61.75228 
566.83221 26.63107 62.17447 
567.26675 26.49049 62.50818 
567.70126 26.29122 62.76827 
568.13575 26.09856 63.14393 
568.57021 25.90992 63.49695 
569.00466 25.74114 63.77547 
569.43908 25.45487 64.18510 
569.87348 25.35761 64.47383 
570.30785 25.19396 64.72299 
570.74220 24.92179 65.10254 
571.17653 24.87686 65.14505 
571.61084 24.65835 65.60419 
572.04513 24.54476 66.14624 
572.47939 24.32046 66.46153 
572.91363 24.26480 66.80501 
573.34784 23.96701 66.94330 
573.78204 23.81928 67.36185 
574.21621 23.75638 67.72885 
574.65035 23.58206 68.03662 
575.08448 23.37860 68.44422 
575.51858 23.26951 68.67662 
575.95266 23.11711 68.95469 
576.38672 22.92128 69.23179 
576.82075 22.86703 69.42805 
577.25476 22.61589 69.93733 
577.68875 22.48246 70.33003 
578.12271 22.41093 70.59821 
578.55666 22.23190 70.95382 
578.99057 22.04821 71.20665 
579.42447 22.02389 71.52657 
579.85834 21.77926 72.02892 
580.29219 21.72182 72.26346 
580.72602 21.61911 72.44872 
581.15982 21.41802 72.97625 
581.59360 21.30752 73.02985 
582.02736 21.20527 73.45855 
582.46110 21.07439 73.77644 
582.89481 20.98704 74.09289 
583.32850 20.87264 74.39343 
583.76216 20.73929 74.87169 
584.19581 20.60462 75.35234 
584.62943 20.51089 75.51555 
585.06302 20.31958 76.03026 
585.49660 20.22643 76.08976 
585.93015 20.16628 76.58625 
586.36367 19.95308 76.86756 
586.79718 19.80400 77.26080 
587.23066 19.75075 77.62387 
587.66411 19.61842 77.86792 
588.09755 19.52071 78.18388 
588.53096 19.39270 78.68360 
588.96435 19.26134 78.77127 
589.39771 19.15757 79.41286 
589.83105 19.09381 79.62668 
590.26437 18.96940 80.00000 
590.69767 18.86775 80.34145 
591.13094 18.72675 80.73229 
591.56419 18.62046 81.14142 
591.99741 18.51284 81.45085 
592.43061 18.42305 81.63972 
592.86379 18.29744 81.93597 
593.29695 18.22505 82.60657 
593.73008 18.19314 82.89519 
594.16318 18.02491 83.22304 
594.59627 17.95919 83.70648 
595.02933 17.87628 83.85112 
595.46237 17.76449 84.12796 
595.89538 17.63832 84.77848 
596.32837 17.57074 85.11747 
596.76134 17.47509 85.46224 
597.19428 17.39143 85.75737 
597.62720 17.36338 86.13282 
598.06010 17.18164 86.58382 
598.49297 17.14475 87.01766 
598.92582 17.00309 87.36574 
599.35865 16.99231 87.58334 
599.79145 16.88031 88.03440 
600.22423 16.82211 88.32490 
600.65699 16.69769 89.01303 
601.08972 16.63178 89.27342 
601.52243 16.51061 89.61321 
601.95511 16.43885 89.99255 
602.38777 16.38041 90.57713 
602.82041 16.30496 90.87745 
603.25302 16.20962 91.08268 
603.68561 16.10743 91.65136 
604.11818 16.08996 91.90332 
604.55072 15.92989 92.44372 
604.98324 15.93962 92.64031 
605.41573 15.81006 92.99135 
605.84820 15.77569 93.29134 
606.28065 15.66324 94.02414 
606.71307 15.61697 94.36506 
607.14547 15.52905 95.00879 
607.57784 15.43576 95.49618 
608.01019 15.35345 95.41512 
608.44252 15.37450 96.05281 
608.87482 15.29053 96.62326 
609.30710 15.20976 96.91728 
609.73936 15.13911 97.31195 
610.17159 15.02240 97.58939 
610.60380 14.99731 98.11345 
611.03598 14.92944 98.66260 
611.46814 14.81074 98.98777 
611.90027 14.75902 99.26381 
612.33238 14.64982 99.69530 
612.76447 14.57936 100.29934 
613.19653 14.59939 100.75823 
613.62857 14.47882 101.06654 
614.06058 14.44683 101.65307 
614.49257 14.38926 101.95605 
614.92454 14.26375 102.44878 
615.35648 14.26935 102.72423 
615.78840 14.23867 103.40030 
